File: EDK/XPS/PR_Project_XADC/ring osc calibration runs/all active.txt
partition number:
1 (1), 7 (7)
2 (2), 8 (8)
3 (3), 9 (9)
0 (0), A (10)
4 (4), B (11)
5 (5), C (12)
6 (6), D (13)
temperature readings:
0 (0), 0 (0)
0 (0), 0 (0)
0 (0), 0 (0)
0 (0), 0 (0)
0 (0), 0 (0)
0 (0), 0 (0)
0 (0), 0 (0)
placement results:
1 (1), 1 (1)
1 (1), 1 (1)
1 (1), 1 (1)
1 (1), 1 (1)
1 (1), 1 (1)
1 (1), 1 (1)
1 (1), 1 (1)
usage results:
0 (0), 0 (0)
0 (0), 0 (0)
0 (0), 0 (0)
0 (0), 0 (0)
0 (0), 0 (0)
0 (0), 0 (0)
0 (0), 0 (0)
oscillating sweeping calibration...
starting at current temperature: 0x9D9
starting cycle:

core temperature: 2521
partition number:
1 (1), 7 (7)
2 (2), 8 (8)
3 (3), 9 (9)
0 (0), A (10)
4 (4), B (11)
5 (5), C (12)
6 (6), D (13)
temperature readings:
6F747B (7304315), 722EB2 (7483058)
6C721C (7107100), 6DE87E (7202942)
6E1FCA (7217098), 6D10EF (7147759)
7742F1 (7815921), 748A99 (7637657)
797F90 (7962512), 724DB2 (7490994)
794BCE (7949262), 742EAC (7614124)
79BBEE (7977966), 7D2BA1 (8203169)
placement results:
1 (1), 1 (1)
1 (1), 1 (1)
1 (1), 1 (1)
1 (1), 1 (1)
1 (1), 1 (1)
1 (1), 1 (1)
1 (1), 1 (1)
usage results:
0 (0), 0 (0)
0 (0), 0 (0)
0 (0), 0 (0)
0 (0), 0 (0)
0 (0), 0 (0)
0 (0), 0 (0)
0 (0), 0 (0)
core temperature: 2529
partition number:
1 (1), 7 (7)
2 (2), 8 (8)
3 (3), 9 (9)
0 (0), A (10)
4 (4), B (11)
5 (5), C (12)
6 (6), D (13)
temperature readings:
6F7664 (7304804), 7230A7 (7483559)
6C7422 (7107618), 6DEB61 (7203681)
6E20E5 (7217381), 6D122F (7148079)
774612 (7816722), 748D6E (7638382)
7981C6 (7963078), 724F24 (7491364)
794D95 (7949717), 742FDB (7614427)
79BD53 (7978323), 7D2CDD (8203485)
placement results:
1 (1), 1 (1)
1 (1), 1 (1)
1 (1), 1 (1)
1 (1), 1 (1)
1 (1), 1 (1)
1 (1), 1 (1)
1 (1), 1 (1)
usage results:
0 (0), 0 (0)
0 (0), 0 (0)
0 (0), 0 (0)
0 (0), 0 (0)
0 (0), 0 (0)
0 (0), 0 (0)
0 (0), 0 (0)
core temperature: 2537
partition number:
1 (1), 7 (7)
2 (2), 8 (8)
3 (3), 9 (9)
0 (0), A (10)
4 (4), B (11)
5 (5), C (12)
6 (6), D (13)
temperature readings:
6F73A0 (7304096), 722D40 (7482688)
6C710C (7106828), 6DE85E (7202910)
6E1D6F (7216495), 6D0EC5 (7147205)
774446 (7816262), 748A3D (7637565)
797F3C (7962428), 724BDD (7490525)
794A06 (7948806), 742BF8 (7613432)
79BACD (7977677), 7D2969 (8202601)
placement results:
1 (1), 1 (1)
1 (1), 1 (1)
1 (1), 1 (1)
1 (1), 1 (1)
1 (1), 1 (1)
1 (1), 1 (1)
1 (1), 1 (1)
usage results:
0 (0), 0 (0)
0 (0), 0 (0)
0 (0), 0 (0)
0 (0), 0 (0)
0 (0), 0 (0)
0 (0), 0 (0)
0 (0), 0 (0)
core temperature: 2545
partition number:
1 (1), 7 (7)
2 (2), 8 (8)
3 (3), 9 (9)
0 (0), A (10)
4 (4), B (11)
5 (5), C (12)
6 (6), D (13)
temperature readings:
6F6E68 (7302760), 7228C6 (7481542)
6C6C96 (7105686), 6DE426 (7201830)
6E18CD (7215309), 6D0B1F (7146271)
774108 (7815432), 748713 (7636755)
7979BF (7961023), 7246D7 (7489239)
7944F0 (7947504), 7426FC (7612156)
79B69D (7976605), 7D2552 (8201554)
placement results:
1 (1), 1 (1)
1 (1), 1 (1)
1 (1), 1 (1)
1 (1), 1 (1)
1 (1), 1 (1)
1 (1), 1 (1)
1 (1), 1 (1)
usage results:
0 (0), 0 (0)
0 (0), 0 (0)
0 (0), 0 (0)
0 (0), 0 (0)
0 (0), 0 (0)
0 (0), 0 (0)
0 (0), 0 (0)
core temperature: 2553
partition number:
1 (1), 7 (7)
2 (2), 8 (8)
3 (3), 9 (9)
0 (0), A (10)
4 (4), B (11)
5 (5), C (12)
6 (6), D (13)
temperature readings:
6F733A (7303994), 722DAB (7482795)
6C6FF6 (7106550), 6DE892 (7202962)
6E1DF0 (7216624), 6D0F7D (7147389)
774659 (7816793), 748B9A (7637914)
797FA7 (7962535), 724BC7 (7490503)
7948F2 (7948530), 742ACE (7613134)
79BB59 (7977817), 7D2A16 (8202774)
placement results:
1 (1), 1 (1)
1 (1), 1 (1)
1 (1), 1 (1)
1 (1), 1 (1)
1 (1), 1 (1)
1 (1), 1 (1)
1 (1), 1 (1)
usage results:
0 (0), 0 (0)
0 (0), 0 (0)
0 (0), 0 (0)
0 (0), 0 (0)
0 (0), 0 (0)
0 (0), 0 (0)
0 (0), 0 (0)
core temperature: 2561
partition number:
1 (1), 7 (7)
2 (2), 8 (8)
3 (3), 9 (9)
0 (0), A (10)
4 (4), B (11)
5 (5), C (12)
6 (6), D (13)
temperature readings:
6F703D (7303229), 722AA6 (7482022)
6C6D78 (7105912), 6DE5AC (7202220)
6E19D8 (7215576), 6D0BC9 (7146441)
774517 (7816471), 74890E (7637262)
797B87 (7961479), 7246D2 (7489234)
7945BD (7947709), 742778 (7612280)
79B7E5 (7976933), 7D2665 (8201829)
placement results:
1 (1), 1 (1)
1 (1), 1 (1)
1 (1), 1 (1)
1 (1), 1 (1)
1 (1), 1 (1)
1 (1), 1 (1)
1 (1), 1 (1)
usage results:
0 (0), 0 (0)
0 (0), 0 (0)
0 (0), 0 (0)
0 (0), 0 (0)
0 (0), 0 (0)
0 (0), 0 (0)
0 (0), 0 (0)
core temperature: 2569
partition number:
1 (1), 7 (7)
2 (2), 8 (8)
3 (3), 9 (9)
0 (0), A (10)
4 (4), B (11)
5 (5), C (12)
6 (6), D (13)
temperature readings:
6F69CB (7301579), 722433 (7480371)
6C67D5 (7104469), 6DE100 (7201024)
6E139A (7213978), 6D0658 (7145048)
773F78 (7815032), 748375 (7635829)
79748D (7959693), 723FE7 (7487463)
793E99 (7945881), 74207A (7610490)
79B24D (7975501), 7D203D (8200253)
placement results:
1 (1), 1 (1)
1 (1), 1 (1)
1 (1), 1 (1)
1 (1), 1 (1)
1 (1), 1 (1)
1 (1), 1 (1)
1 (1), 1 (1)
usage results:
0 (0), 0 (0)
0 (0), 0 (0)
0 (0), 0 (0)
0 (0), 0 (0)
0 (0), 0 (0)
0 (0), 0 (0)
0 (0), 0 (0)
core temperature: 2577
partition number:
1 (1), 7 (7)
2 (2), 8 (8)
3 (3), 9 (9)
0 (0), A (10)
4 (4), B (11)
5 (5), C (12)
6 (6), D (13)
temperature readings:
6F60DE (7299294), 721BDE (7478238)
6C5E48 (7102024), 6DD835 (7198773)
6E0987 (7211399), 6CFD99 (7142809)
773674 (7812724), 747AF9 (7633657)
796B7B (7957371), 7236EE (7485166)
793505 (7943429), 7416D1 (7608017)
79AA13 (7973395), 7D175A (8197978)
placement results:
1 (1), 1 (1)
1 (1), 1 (1)
1 (1), 1 (1)
1 (1), 1 (1)
1 (1), 1 (1)
1 (1), 1 (1)
1 (1), 1 (1)
usage results:
0 (0), 0 (0)
0 (0), 0 (0)
0 (0), 0 (0)
0 (0), 0 (0)
0 (0), 0 (0)
0 (0), 0 (0)
0 (0), 0 (0)
core temperature: 2585
partition number:
1 (1), 7 (7)
2 (2), 8 (8)
3 (3), 9 (9)
0 (0), A (10)
4 (4), B (11)
5 (5), C (12)
6 (6), D (13)
temperature readings:
6F5998 (7297432), 721415 (7476245)
6C577A (7100282), 6DD225 (7197221)
6E0284 (7209604), 6CF700 (7141120)
7731BD (7811517), 74752C (7632172)
7963C7 (7955399), 722F5E (7483230)
792EBD (7941821), 741010 (7606288)
79A32B (7971627), 7D10FE (8196350)
placement results:
1 (1), 1 (1)
1 (1), 1 (1)
1 (1), 1 (1)
1 (1), 1 (1)
1 (1), 1 (1)
1 (1), 1 (1)
1 (1), 1 (1)
usage results:
0 (0), 0 (0)
0 (0), 0 (0)
0 (0), 0 (0)
0 (0), 0 (0)
0 (0), 0 (0)
0 (0), 0 (0)
0 (0), 0 (0)
core temperature: 2593
partition number:
1 (1), 7 (7)
2 (2), 8 (8)
3 (3), 9 (9)
0 (0), A (10)
4 (4), B (11)
5 (5), C (12)
6 (6), D (13)
temperature readings:
6F53FA (7295994), 720E7C (7474812)
6C521E (7098910), 6DCC98 (7195800)
6DFD82 (7208322), 6CF1CE (7139790)
772CAB (7810219), 746F4F (7630671)
795D72 (7953778), 7228B0 (7481520)
79288A (7940234), 740A05 (7604741)
799D0A (7970058), 7D0AAB (8194731)
placement results:
1 (1), 1 (1)
1 (1), 1 (1)
1 (1), 1 (1)
1 (1), 1 (1)
1 (1), 1 (1)
1 (1), 1 (1)
1 (1), 1 (1)
usage results:
0 (0), 0 (0)
0 (0), 0 (0)
0 (0), 0 (0)
0 (0), 0 (0)
0 (0), 0 (0)
0 (0), 0 (0)
0 (0), 0 (0)
starting cycle:

core temperature: 2525
partition number:
1 (1), 7 (7)
2 (2), 8 (8)
3 (3), 9 (9)
0 (0), A (10)
4 (4), B (11)
5 (5), C (12)
6 (6), D (13)
temperature readings:
6F5E3B (7298619), 7217BB (7477179)
6C5C65 (7101541), 6DD364 (7197540)
6E090C (7211276), 6CFA52 (7141970)
772B8B (7809931), 747422 (7631906)
79671D (7956253), 72370D (7485197)
793398 (7943064), 741749 (7608137)
79A40E (7971854), 7D133D (8196925)
placement results:
1 (1), 1 (1)
1 (1), 1 (1)
1 (1), 1 (1)
1 (1), 1 (1)
1 (1), 1 (1)
1 (1), 1 (1)
1 (1), 1 (1)
usage results:
0 (0), 0 (0)
0 (0), 0 (0)
0 (0), 0 (0)
0 (0), 0 (0)
0 (0), 0 (0)
0 (0), 0 (0)
0 (0), 0 (0)
core temperature: 2601
partition number:
1 (1), 7 (7)
2 (2), 8 (8)
3 (3), 9 (9)
0 (0), A (10)
4 (4), B (11)
5 (5), C (12)
6 (6), D (13)
temperature readings:
6F51A1 (7295393), 720CEE (7474414)
6C5017 (7098391), 6DCB4C (7195468)
6DFACD (7207629), 6CEF29 (7139113)
772B77 (7809911), 746E95 (7630485)
795CD4 (7953620), 72278E (7481230)
7925CB (7939531), 740775 (7604085)
799C30 (7969840), 7D0900 (8194304)
placement results:
1 (1), 1 (1)
1 (1), 1 (1)
1 (1), 1 (1)
1 (1), 1 (1)
1 (1), 1 (1)
1 (1), 1 (1)
1 (1), 1 (1)
usage results:
0 (0), 0 (0)
0 (0), 0 (0)
0 (0), 0 (0)
0 (0), 0 (0)
0 (0), 0 (0)
0 (0), 0 (0)
0 (0), 0 (0)