File: EDK/XPS/PR_Project_XADC/ring osc calibration runs/oscillator_hotspot 3.txt
core temperature: 2524
partition number:
1 (1), 7 (7)
2 (2), 8 (8)
3 (3), 9 (9)
0 (0), A (10)
4 (4), B (11)
5 (5), C (12)
6 (6), D (13)
temperature readings:
6F6AB8 (7301816), 7225F2 (7480818)
6C6827 (7104551), 6DDE4C (7200332)
6E14F3 (7214323), 6D05A0 (7144864)
7737AA (7813034), 74801E (7634974)
7974AF (7959727), 72431C (7488284)
793F2E (7946030), 742223 (7610915)
79AFA2 (7974818), 7D1F14 (8199956)
placement results:
0 (0), 0 (0)
0 (0), 0 (0)
0 (0), 0 (0)
0 (0), 0 (0)
0 (0), 0 (0)
0 (0), 0 (0)
0 (0), 0 (0)
usage results:
0 (0), 0 (0)
0 (0), 0 (0)
0 (0), 0 (0)
0 (0), 0 (0)
0 (0), 0 (0)
0 (0), 0 (0)
0 (0), 0 (0)
core temperature: 2532
partition number:
1 (1), 7 (7)
2 (2), 8 (8)
3 (3), 9 (9)
0 (0), A (10)
4 (4), B (11)
5 (5), C (12)
6 (6), D (13)
temperature readings:
6F6BE8 (7302120), 7227A2 (7481250)
6C69AC (7104940), 6DE083 (7200899)
6E1659 (7214681), 6D0764 (7145316)
773A3A (7813690), 74826F (7635567)
7976D5 (7960277), 72446E (7488622)
7940BF (7946431), 742354 (7611220)
79B267 (7975527), 7D2150 (8200528)
placement results:
0 (0), 0 (0)
0 (0), 0 (0)
0 (0), 0 (0)
0 (0), 0 (0)
0 (0), 0 (0)
0 (0), 0 (0)
0 (0), 0 (0)
usage results:
0 (0), 0 (0)
0 (0), 0 (0)
0 (0), 0 (0)
0 (0), 0 (0)
0 (0), 0 (0)
0 (0), 0 (0)
0 (0), 0 (0)
core temperature: 2540
partition number:
1 (1), 7 (7)
2 (2), 8 (8)
3 (3), 9 (9)
0 (0), A (10)
4 (4), B (11)
5 (5), C (12)
6 (6), D (13)
temperature readings:
6F6A4A (7301706), 722633 (7480883)
6C67BC (7104444), 6DDECA (7200458)
6E1423 (7214115), 6D05B5 (7144885)
773A2F (7813679), 7481A4 (7635364)
797491 (7959697), 724182 (7487874)
793F78 (7946104), 7421C5 (7610821)
79B050 (7974992), 7D1F50 (8200016)
placement results:
0 (0), 0 (0)
0 (0), 0 (0)
0 (0), 0 (0)
0 (0), 0 (0)
0 (0), 0 (0)
0 (0), 0 (0)
0 (0), 0 (0)
usage results:
0 (0), 0 (0)
0 (0), 0 (0)
0 (0), 0 (0)
0 (0), 0 (0)
0 (0), 0 (0)
0 (0), 0 (0)
0 (0), 0 (0)
core temperature: 2548
partition number:
1 (1), 7 (7)
2 (2), 8 (8)
3 (3), 9 (9)
0 (0), A (10)
4 (4), B (11)
5 (5), C (12)
6 (6), D (13)
temperature readings:
6F6A93 (7301779), 722631 (7480881)
6C67C8 (7104456), 6DDF76 (7200630)
6E13D4 (7214036), 6D056E (7144814)
773C1E (7814174), 748349 (7635785)
79757F (7959935), 72416A (7487850)
793F52 (7946066), 742127 (7610663)
79B0FF (7975167), 7D2015 (8200213)
placement results:
0 (0), 0 (0)
0 (0), 0 (0)
0 (0), 0 (0)
0 (0), 0 (0)
0 (0), 0 (0)
0 (0), 0 (0)
0 (0), 0 (0)
usage results:
0 (0), 0 (0)
0 (0), 0 (0)
0 (0), 0 (0)
0 (0), 0 (0)
0 (0), 0 (0)
0 (0), 0 (0)
0 (0), 0 (0)
core temperature: 2556
partition number:
1 (1), 7 (7)
2 (2), 8 (8)
3 (3), 9 (9)
0 (0), A (10)
4 (4), B (11)
5 (5), C (12)
6 (6), D (13)
temperature readings:
6F67B2 (7301042), 72233F (7480127)
6C6573 (7103859), 6DDD5A (7200090)
6E1159 (7213401), 6D0322 (7144226)
773996 (7813526), 748059 (7635033)
79728E (7959182), 723E7F (7487103)
793CBF (7945407), 741EC3 (7610051)
79AF78 (7974776), 7D1E13 (8199699)
placement results:
0 (0), 0 (0)
0 (0), 0 (0)
0 (0), 0 (0)
0 (0), 0 (0)
0 (0), 0 (0)
0 (0), 0 (0)
0 (0), 0 (0)
usage results:
0 (0), 0 (0)
0 (0), 0 (0)
0 (0), 0 (0)
0 (0), 0 (0)
0 (0), 0 (0)
0 (0), 0 (0)
0 (0), 0 (0)
core temperature: 2564
partition number:
1 (1), 7 (7)
2 (2), 8 (8)
3 (3), 9 (9)
0 (0), A (10)
4 (4), B (11)
5 (5), C (12)
6 (6), D (13)
temperature readings:
6F664C (7300684), 722211 (7479825)
6C63A6 (7103398), 6DDC48 (7199816)
6E0F3B (7212859), 6D0121 (7143713)
773985 (7813509), 747F5C (7634780)
797001 (7958529), 723BE3 (7486435)
793A86 (7944838), 741C64 (7609444)
79ADD4 (7974356), 7D1C29 (8199209)
placement results:
0 (0), 0 (0)
0 (0), 0 (0)
0 (0), 0 (0)
0 (0), 0 (0)
0 (0), 0 (0)
0 (0), 0 (0)
0 (0), 0 (0)
usage results:
0 (0), 0 (0)
0 (0), 0 (0)
0 (0), 0 (0)
0 (0), 0 (0)
0 (0), 0 (0)
0 (0), 0 (0)
0 (0), 0 (0)
core temperature: 2572
partition number:
1 (1), 7 (7)
2 (2), 8 (8)
3 (3), 9 (9)
0 (0), A (10)
4 (4), B (11)
5 (5), C (12)
6 (6), D (13)
temperature readings:
6F60C2 (7299266), 721C77 (7478391)
6C5E7F (7102079), 6DD790 (7198608)
6E0A38 (7211576), 6CFC77 (7142519)
7735E4 (7812580), 747ADA (7633626)
796A74 (7957108), 723662 (7485026)
7934EA (7943402), 7416FD (7608061)
79A92C (7973164), 7D1754 (8197972)
placement results:
0 (0), 0 (0)
0 (0), 0 (0)
0 (0), 0 (0)
0 (0), 0 (0)
0 (0), 0 (0)
0 (0), 0 (0)
0 (0), 0 (0)
usage results:
0 (0), 0 (0)
0 (0), 0 (0)
0 (0), 0 (0)
0 (0), 0 (0)
0 (0), 0 (0)
0 (0), 0 (0)
0 (0), 0 (0)
core temperature: 2580
partition number:
1 (1), 7 (7)
2 (2), 8 (8)
3 (3), 9 (9)
0 (0), A (10)
4 (4), B (11)
5 (5), C (12)
6 (6), D (13)
temperature readings:
6F5EBA (7298746), 721A8D (7477901)
6C5BE4 (7101412), 6DD571 (7198065)
6E0767 (7210855), 6CFAAB (7142059)
773411 (7812113), 7478C5 (7633093)
79679D (7956381), 72329E (7484062)
793192 (7942546), 7413DC (7607260)
79A664 (7972452), 7D148D (8197261)
placement results:
0 (0), 0 (0)
0 (0), 0 (0)
0 (0), 0 (0)
0 (0), 0 (0)
0 (0), 0 (0)
0 (0), 0 (0)
0 (0), 0 (0)
usage results:
0 (0), 0 (0)
0 (0), 0 (0)
0 (0), 0 (0)
0 (0), 0 (0)
0 (0), 0 (0)
0 (0), 0 (0)
0 (0), 0 (0)
core temperature: 2588
partition number:
1 (1), 7 (7)
2 (2), 8 (8)
3 (3), 9 (9)
0 (0), A (10)
4 (4), B (11)
5 (5), C (12)
6 (6), D (13)
temperature readings:
6F54B7 (7296183), 721051 (7475281)
6C520C (7098892), 6DCBE3 (7195619)
6DFD38 (7208248), 6CF0EC (7139564)
772B5B (7809883), 747035 (7630901)
795D15 (7953685), 722855 (7481429)
7927C7 (7940039), 740AAA (7604906)
799D47 (7970119), 7D0AFD (8194813)
placement results:
0 (0), 0 (0)
0 (0), 0 (0)
0 (0), 0 (0)
0 (0), 0 (0)
0 (0), 0 (0)
0 (0), 0 (0)
0 (0), 0 (0)
usage results:
0 (0), 0 (0)
0 (0), 0 (0)
0 (0), 0 (0)
0 (0), 0 (0)
0 (0), 0 (0)
0 (0), 0 (0)
0 (0), 0 (0)
core temperature: 2596
partition number:
1 (1), 7 (7)
2 (2), 8 (8)
3 (3), 9 (9)
0 (0), A (10)
4 (4), B (11)
5 (5), C (12)
6 (6), D (13)
temperature readings:
6F539D (7295901), 720F90 (7475088)
6C5154 (7098708), 6DCBE3 (7195619)
6DFC62 (7208034), 6CF065 (7139429)
772B61 (7809889), 746FE8 (7630824)
795BC6 (7953350), 722750 (7481168)
792674 (7939700), 7408AD (7604397)
799BD4 (7969748), 7D088D (8194189)
placement results:
0 (0), 0 (0)
0 (0), 0 (0)
0 (0), 0 (0)
0 (0), 0 (0)
0 (0), 0 (0)
0 (0), 0 (0)
0 (0), 0 (0)
usage results:
0 (0), 0 (0)
0 (0), 0 (0)
0 (0), 0 (0)
0 (0), 0 (0)
0 (0), 0 (0)
0 (0), 0 (0)
0 (0), 0 (0)