File: EDK/XPS/PR_Project_XADC/ring osc calibration runs/oscillator_hotspot 4.txt
core temperature: 2526
partition number:
1 (1), 7 (7)
2 (2), 8 (8)
3 (3), 9 (9)
0 (0), A (10)
4 (4), B (11)
5 (5), C (12)
6 (6), D (13)
temperature readings:
6F6F47 (7302983), 7225F8 (7480824)
6C6B10 (7105296), 6DE172 (7201138)
6E1969 (7215465), 6D09A1 (7145889)
773C6D (7814253), 74849D (7636125)
79775F (7960415), 724606 (7489030)
794384 (7947140), 74237E (7611262)
79B40B (7975947), 7D22FD (8200957)
placement results:
0 (0), 0 (0)
0 (0), 0 (0)
0 (0), 0 (0)
0 (0), 0 (0)
0 (0), 0 (0)
0 (0), 0 (0)
1 (1), 1 (1)
usage results:
0 (0), 0 (0)
0 (0), 0 (0)
0 (0), 0 (0)
0 (0), 0 (0)
0 (0), 0 (0)
0 (0), 0 (0)
0 (0), 0 (0)
core temperature: 2534
partition number:
1 (1), 7 (7)
2 (2), 8 (8)
3 (3), 9 (9)
0 (0), A (10)
4 (4), B (11)
5 (5), C (12)
6 (6), D (13)
temperature readings:
6F6EDF (7302879), 722759 (7481177)
6C6BEB (7105515), 6DE27D (7201405)
6E193A (7215418), 6D0AE5 (7146213)
773D7F (7814527), 748563 (7636323)
797862 (7960674), 7245FC (7489020)
794424 (7947300), 742548 (7611720)
79B546 (7976262), 7D2403 (8201219)
placement results:
0 (0), 0 (0)
0 (0), 0 (0)
0 (0), 0 (0)
0 (0), 0 (0)
0 (0), 0 (0)
0 (0), 0 (0)
1 (1), 1 (1)
usage results:
0 (0), 0 (0)
0 (0), 0 (0)
0 (0), 0 (0)
0 (0), 0 (0)
0 (0), 0 (0)
0 (0), 0 (0)
0 (0), 0 (0)
core temperature: 2542
partition number:
1 (1), 7 (7)
2 (2), 8 (8)
3 (3), 9 (9)
0 (0), A (10)
4 (4), B (11)
5 (5), C (12)
6 (6), D (13)
temperature readings:
6F6DC2 (7302594), 7226B8 (7481016)
6C6A6A (7105130), 6DE173 (7201139)
6E1693 (7214739), 6D081F (7145503)
773E17 (7814679), 748516 (7636246)
7976D7 (7960279), 72437C (7488380)
7941DB (7946715), 74232B (7611179)
79B530 (7976240), 7D2330 (8201008)
placement results:
0 (0), 0 (0)
0 (0), 0 (0)
0 (0), 0 (0)
0 (0), 0 (0)
0 (0), 0 (0)
0 (0), 0 (0)
1 (1), 1 (1)
usage results:
0 (0), 0 (0)
0 (0), 0 (0)
0 (0), 0 (0)
0 (0), 0 (0)
0 (0), 0 (0)
0 (0), 0 (0)
0 (0), 0 (0)
core temperature: 2550
partition number:
1 (1), 7 (7)
2 (2), 8 (8)
3 (3), 9 (9)
0 (0), A (10)
4 (4), B (11)
5 (5), C (12)
6 (6), D (13)
temperature readings:
6F6C0B (7302155), 7224F5 (7480565)
6C68B1 (7104689), 6DDFF6 (7200758)
6E14CA (7214282), 6D067B (7145083)
773E05 (7814661), 748431 (7636017)
69749C (6911132), 724135 (7487797)
794078 (7946360), 7421FB (7610875)
79B3A1 (7975841), 7D217F (8200575)
placement results:
0 (0), 0 (0)
0 (0), 0 (0)
0 (0), 0 (0)
0 (0), 0 (0)
0 (0), 0 (0)
0 (0), 0 (0)
1 (1), 1 (1)
usage results:
0 (0), 0 (0)
0 (0), 0 (0)
0 (0), 0 (0)
0 (0), 0 (0)
0 (0), 0 (0)
0 (0), 0 (0)
0 (0), 0 (0)
core temperature: 2558
partition number:
1 (1), 7 (7)
2 (2), 8 (8)
3 (3), 9 (9)
0 (0), A (10)
4 (4), B (11)
5 (5), C (12)
6 (6), D (13)
temperature readings:
6F6925 (7301413), 7222CD (7480013)
6C6689 (7104137), 6DDF5A (7200602)
6E1354 (7213908), 6D0533 (7144755)
773CC0 (7814336), 7482E6 (7635686)
797368 (7959400), 723F5E (7487326)
793E1C (7945756), 741FB7 (7610295)
79B1F6 (7975414), 7D1FE6 (8200166)
placement results:
0 (0), 0 (0)
0 (0), 0 (0)
0 (0), 0 (0)
0 (0), 0 (0)
0 (0), 0 (0)
0 (0), 0 (0)
1 (1), 1 (1)
usage results:
0 (0), 0 (0)
0 (0), 0 (0)
0 (0), 0 (0)
0 (0), 0 (0)
0 (0), 0 (0)
0 (0), 0 (0)
0 (0), 0 (0)
core temperature: 2566
partition number:
1 (1), 7 (7)
2 (2), 8 (8)
3 (3), 9 (9)
0 (0), A (10)
4 (4), B (11)
5 (5), C (12)
6 (6), D (13)
temperature readings:
6F6893 (7301267), 722294 (7479956)
6C66B7 (7104183), 6DDF8F (7200655)
6E1265 (7213669), 6D04A6 (7144614)
773DE7 (7814631), 7482D7 (7635671)
7972A6 (7959206), 723DDB (7486939)
793D26 (7945510), 741E5A (7609946)
79B246 (7975494), 7D1FFD (8200189)
placement results:
0 (0), 0 (0)
0 (0), 0 (0)
0 (0), 0 (0)
0 (0), 0 (0)
0 (0), 0 (0)
0 (0), 0 (0)
1 (1), 1 (1)
usage results:
0 (0), 0 (0)
0 (0), 0 (0)
0 (0), 0 (0)
0 (0), 0 (0)
0 (0), 0 (0)
0 (0), 0 (0)
0 (0), 0 (0)
core temperature: 2574
partition number:
1 (1), 7 (7)
2 (2), 8 (8)
3 (3), 9 (9)
0 (0), A (10)
4 (4), B (11)
5 (5), C (12)
6 (6), D (13)
temperature readings:
6F6775 (7300981), 722181 (7479681)
6C6414 (7103508), 6DDD15 (7200021)
6E0FF1 (7213041), 6D0268 (7144040)
773C3D (7814205), 7480EF (7635183)
797141 (7958849), 723C40 (7486528)
793ADD (7944925), 741C5F (7609439)
79B0BF (7975103), 7D1E5C (8199772)
placement results:
0 (0), 0 (0)
0 (0), 0 (0)
0 (0), 0 (0)
0 (0), 0 (0)
0 (0), 0 (0)
0 (0), 0 (0)
1 (1), 1 (1)
usage results:
0 (0), 0 (0)
0 (0), 0 (0)
0 (0), 0 (0)
0 (0), 0 (0)
0 (0), 0 (0)
0 (0), 0 (0)
0 (0), 0 (0)
core temperature: 2582
partition number:
1 (1), 7 (7)
2 (2), 8 (8)
3 (3), 9 (9)
0 (0), A (10)
4 (4), B (11)
5 (5), C (12)
6 (6), D (13)
temperature readings:
6F5B0F (7297807), 72157A (7476602)
6C5938 (7100728), 6DD24F (7197263)
6E0477 (7210103), 6CF7C8 (7141320)
77313D (7811389), 7475DD (7632349)
7964F3 (7955699), 722FD7 (7483351)
792F32 (7941938), 74112F (7606575)
79A5BB (7972283), 7D12E7 (8196839)
placement results:
0 (0), 0 (0)
0 (0), 0 (0)
0 (0), 0 (0)
0 (0), 0 (0)
0 (0), 0 (0)
0 (0), 0 (0)
1 (1), 1 (1)
usage results:
0 (0), 0 (0)
0 (0), 0 (0)
0 (0), 0 (0)
0 (0), 0 (0)
0 (0), 0 (0)
0 (0), 0 (0)
0 (0), 0 (0)
core temperature: 2590
partition number:
1 (1), 7 (7)
2 (2), 8 (8)
3 (3), 9 (9)
0 (0), A (10)
4 (4), B (11)
5 (5), C (12)
6 (6), D (13)
temperature readings:
6F5B7F (7297919), 7215F8 (7476728)
6C596D (7100781), 6DD324 (7197476)
6E0386 (7209862), 6CF6C5 (7141061)
773357 (7811927), 7476E2 (7632610)
79653A (7955770), 722FBC (7483324)
792FAA (7942058), 741126 (7606566)
79A6A4 (7972516), 7D1319 (8196889)
placement results:
0 (0), 0 (0)
0 (0), 0 (0)
0 (0), 0 (0)
0 (0), 0 (0)
0 (0), 0 (0)
0 (0), 0 (0)
1 (1), 1 (1)
usage results:
0 (0), 0 (0)
0 (0), 0 (0)
0 (0), 0 (0)
0 (0), 0 (0)
0 (0), 0 (0)
0 (0), 0 (0)
0 (0), 0 (0)
core temperature: 2598
partition number:
1 (1), 7 (7)
2 (2), 8 (8)
3 (3), 9 (9)
0 (0), A (10)
4 (4), B (11)
5 (5), C (12)
6 (6), D (13)
temperature readings:
6F507D (7295101), 720B62 (7474018)
6C4F19 (7098137), 6DC968 (7194984)
6DF9C6 (7207366), 6CEDA4 (7138724)
7729CD (7809485), 746CBF (7630015)
7959B3 (7952819), 722455 (7480405)
792505 (7939333), 740698 (7603864)
799D26 (7970086), 7D0994 (8194452)
placement results:
0 (0), 0 (0)
0 (0), 0 (0)
0 (0), 0 (0)
0 (0), 0 (0)
0 (0), 0 (0)
0 (0), 0 (0)
1 (1), 1 (1)
usage results:
0 (0), 0 (0)
0 (0), 0 (0)
0 (0), 0 (0)
0 (0), 0 (0)
0 (0), 0 (0)
0 (0), 0 (0)
0 (0), 0 (0)