File: EDK/XPS/PR_Project_XADC/ring osc calibration runs/oscillator_hotspot 2.txt
sweeping calibration...
starting at current temperature: 0x9B6
core temperature: 2486
partition number:
1 (1), 7 (7)
2 (2), 8 (8)
3 (3), 9 (9)
0 (0), A (10)
4 (4), B (11)
5 (5), C (12)
6 (6), D (13)
temperature readings:
6FB273 (7320179), 726D75 (7499125)
6CABD4 (7121876), 6E228D (7217805)
6E5A32 (7232050), 6D490E (7162126)
7779BA (7829946), 74C367 (7652199)
79BA92 (7977618), 72875E (7505758)
7985C9 (7964105), 7467D2 (7628754)
79F481 (7992449), 7D65D5 (8218069)
placement results:
0 (0), 1 (1)
0 (0), 0 (0)
0 (0), 0 (0)
0 (0), 0 (0)
0 (0), 0 (0)
0 (0), 0 (0)
0 (0), 1 (1)
usage results:
0 (0), 0 (0)
0 (0), 0 (0)
0 (0), 0 (0)
0 (0), 0 (0)
0 (0), 0 (0)
0 (0), 0 (0)
0 (0), 0 (0)
core temperature: 2495
partition number:
1 (1), 7 (7)
2 (2), 8 (8)
3 (3), 9 (9)
0 (0), A (10)
4 (4), B (11)
5 (5), C (12)
6 (6), D (13)
temperature readings:
6FA7BF (7317439), 72633E (7496510)
6CA23E (7119422), 6E1879 (7215225)
6E4F40 (7229248), 6D3EC8 (7159496)
776F08 (7827208), 74B97C (7649660)
79AFFF (7974911), 727CB2 (7503026)
797B4B (7961419), 745DB8 (7626168)
79E8E0 (7989472), 7D5B33 (8215347)
placement results:
0 (0), 1 (1)
0 (0), 0 (0)
0 (0), 0 (0)
0 (0), 0 (0)
0 (0), 0 (0)
0 (0), 0 (0)
0 (0), 1 (1)
usage results:
0 (0), 0 (0)
0 (0), 0 (0)
0 (0), 0 (0)
0 (0), 0 (0)
0 (0), 0 (0)
0 (0), 0 (0)
0 (0), 0 (0)
core temperature: 2503
partition number:
1 (1), 7 (7)
2 (2), 8 (8)
3 (3), 9 (9)
0 (0), A (10)
4 (4), B (11)
5 (5), C (12)
6 (6), D (13)
temperature readings:
6FE6EE (7333614), 72A548 (7513416)
6CDFDE (7135198), 6E582F (7231535)
6E8D60 (7245152), 6D7D3D (7175485)
77B719 (7845657), 74FE23 (7667235)
79F568 (7992680), 72BC97 (7519383)
79BF7D (7978877), 749E47 (7642695)
7A3038 (8007736), 7DA46E (8234094)
placement results:
0 (0), 1 (1)
0 (0), 0 (0)
0 (0), 0 (0)
0 (0), 0 (0)
0 (0), 0 (0)
0 (0), 0 (0)
0 (0), 1 (1)
usage results:
0 (0), 0 (0)
0 (0), 0 (0)
0 (0), 0 (0)
0 (0), 0 (0)
0 (0), 0 (0)
0 (0), 0 (0)
0 (0), 0 (0)
core temperature: 2511
partition number:
1 (1), 7 (7)
2 (2), 8 (8)
3 (3), 9 (9)
0 (0), A (10)
4 (4), B (11)
5 (5), C (12)
6 (6), D (13)
temperature readings:
6FDB2B (7330603), 72990C (7510284)
6CD473 (7132275), 6E4CF3 (7228659)
6E8287 (7242375), 6D723C (7172668)
77AB9A (7842714), 74F239 (7664185)
79E96E (7989614), 72B106 (7516422)
79B358 (7975768), 749242 (7639618)
7A24C2 (8004802), 7D9836 (8230966)
placement results:
0 (0), 1 (1)
0 (0), 0 (0)
0 (0), 0 (0)
0 (0), 0 (0)
0 (0), 0 (0)
0 (0), 0 (0)
0 (0), 1 (1)
usage results:
0 (0), 0 (0)
0 (0), 0 (0)
0 (0), 0 (0)
0 (0), 0 (0)
0 (0), 0 (0)
0 (0), 0 (0)
0 (0), 0 (0)
core temperature: 2519
partition number:
1 (1), 7 (7)
2 (2), 8 (8)
3 (3), 9 (9)
0 (0), A (10)
4 (4), B (11)
5 (5), C (12)
6 (6), D (13)
temperature readings:
6FC7C0 (7325632), 7284D3 (7505107)
6CC1DB (7127515), 6E3AAB (7223979)
6E6EE6 (7237350), 6D5FCC (7167948)
779965 (7838053), 74DFC1 (7659457)
79D65A (7984730), 729E66 (7511654)
799FDB (7970779), 747F30 (7634736)
7A1107 (7999751), 7D840B (8225803)
placement results:
0 (0), 1 (1)
0 (0), 0 (0)
0 (0), 0 (0)
0 (0), 0 (0)
0 (0), 0 (0)
0 (0), 0 (0)
0 (0), 1 (1)
usage results:
0 (0), 0 (0)
0 (0), 0 (0)
0 (0), 0 (0)
0 (0), 0 (0)
0 (0), 0 (0)
0 (0), 0 (0)
0 (0), 0 (0)
core temperature: 2527
partition number:
1 (1), 7 (7)
2 (2), 8 (8)
3 (3), 9 (9)
0 (0), A (10)
4 (4), B (11)
5 (5), C (12)
6 (6), D (13)
temperature readings:
6FC375 (7324533), 728122 (7504162)
6CBDBB (7126459), 6E36E5 (7223013)
6E6A33 (7236147), 6D5B4E (7166798)
779537 (7836983), 74DB96 (7658390)
79D04F (7983183), 729862 (7510114)
799A0C (7969292), 7479A2 (7633314)
7A0CBF (7998655), 7D7EE9 (8224489)
placement results:
0 (0), 1 (1)
0 (0), 0 (0)
0 (0), 0 (0)
0 (0), 0 (0)
0 (0), 0 (0)
0 (0), 0 (0)
0 (0), 1 (1)
usage results:
0 (0), 0 (0)
0 (0), 0 (0)
0 (0), 0 (0)
0 (0), 0 (0)
0 (0), 0 (0)
0 (0), 0 (0)
0 (0), 0 (0)
core temperature: 2535
partition number:
1 (1), 7 (7)
2 (2), 8 (8)
3 (3), 9 (9)
0 (0), A (10)
4 (4), B (11)
5 (5), C (12)
6 (6), D (13)
temperature readings:
6FADBD (7318973), 726B8A (7498634)
6CA8D6 (7121110), 6E2237 (7217719)
6E55B5 (7230901), 6D476E (7161710)
778162 (7831906), 74C7BA (7653306)
79B98D (7977357), 72827E (7504510)
79843C (7963708), 7464A9 (7627945)
79F7A8 (7993256), 7D6901 (8218881)
placement results:
0 (0), 1 (1)
0 (0), 0 (0)
0 (0), 0 (0)
0 (0), 0 (0)
0 (0), 0 (0)
0 (0), 0 (0)
0 (0), 1 (1)
usage results:
0 (0), 0 (0)
0 (0), 0 (0)
0 (0), 0 (0)
0 (0), 0 (0)
0 (0), 0 (0)
0 (0), 0 (0)
0 (0), 0 (0)
core temperature: 2543
partition number:
1 (1), 7 (7)
2 (2), 8 (8)
3 (3), 9 (9)
0 (0), A (10)
4 (4), B (11)
5 (5), C (12)
6 (6), D (13)
temperature readings:
6FA13C (7315772), 725E58 (7495256)
6C9D43 (7118147), 6E16EE (7214830)
6E48E6 (7227622), 6D3B36 (7158582)
7774C9 (7828681), 74BB15 (7650069)
79AC6B (7973995), 727626 (7501350)
7977C0 (7960512), 74580C (7624716)
79EB06 (7990022), 7D5BD0 (8215504)
placement results:
0 (0), 1 (1)
0 (0), 0 (0)
0 (0), 0 (0)
0 (0), 0 (0)
0 (0), 0 (0)
0 (0), 0 (0)
0 (0), 1 (1)
usage results:
0 (0), 0 (0)
0 (0), 0 (0)
0 (0), 0 (0)
0 (0), 0 (0)
0 (0), 0 (0)
0 (0), 0 (0)
0 (0), 0 (0)
core temperature: 2551
partition number:
1 (1), 7 (7)
2 (2), 8 (8)
3 (3), 9 (9)
0 (0), A (10)
4 (4), B (11)
5 (5), C (12)
6 (6), D (13)
temperature readings:
6F9B71 (7314289), 725888 (7493768)
6C9721 (7116577), 6E1132 (7213362)
6E4448 (7226440), 6D3623 (7157283)
776FE1 (7827425), 74B54B (7648587)
79A6F3 (7972595), 727048 (7499848)
7971B5 (7958965), 745221 (7623201)
79E4FB (7988475), 7D560A (8214026)
placement results:
0 (0), 1 (1)
0 (0), 0 (0)
0 (0), 0 (0)
0 (0), 0 (0)
0 (0), 0 (0)
0 (0), 0 (0)
0 (0), 1 (1)
usage results:
0 (0), 0 (0)
0 (0), 0 (0)
0 (0), 0 (0)
0 (0), 0 (0)
0 (0), 0 (0)
0 (0), 0 (0)
0 (0), 0 (0)
core temperature: 2559
partition number:
1 (1), 7 (7)
2 (2), 8 (8)
3 (3), 9 (9)
0 (0), A (10)
4 (4), B (11)
5 (5), C (12)
6 (6), D (13)
temperature readings:
6F9163 (7311715), 724E85 (7491205)
6C8E15 (7114261), 6E0808 (7211016)
6E3946 (7223622), 6D2B7C (7154556)
776628 (7824936), 74AB84 (7646084)
799BB3 (7969715), 72657F (7497087)
796743 (7956291), 74471F (7620383)
79DB6D (7986029), 7D4BC5 (8211397)
placement results:
0 (0), 1 (1)
0 (0), 0 (0)
0 (0), 0 (0)
0 (0), 0 (0)
0 (0), 0 (0)
0 (0), 0 (0)
0 (0), 1 (1)
usage results:
0 (0), 0 (0)
0 (0), 0 (0)
0 (0), 0 (0)
0 (0), 0 (0)
0 (0), 0 (0)
0 (0), 0 (0)
0 (0), 0 (0)
core temperature: 2567
partition number:
1 (1), 7 (7)
2 (2), 8 (8)
3 (3), 9 (9)
0 (0), A (10)
4 (4), B (11)
5 (5), C (12)
6 (6), D (13)
temperature readings:
6F85F0 (7308784), 724378 (7488376)
6C82AB (7111339), 6DFD6A (7208298)
6E2D6C (7220588), 6D2036 (7151670)
775C13 (7822355), 74A0AC (7643308)
799088 (7966856), 725AD2 (7494354)
795ACA (7953098), 743B9C (7617436)
79CFD1 (7983057), 7D3FE5 (8208357)
placement results:
0 (0), 1 (1)
0 (0), 0 (0)
0 (0), 0 (0)
0 (0), 0 (0)
0 (0), 0 (0)
0 (0), 0 (0)
0 (0), 1 (1)
usage results:
0 (0), 0 (0)
0 (0), 0 (0)
0 (0), 0 (0)
0 (0), 0 (0)
0 (0), 0 (0)
0 (0), 0 (0)
0 (0), 0 (0)
core temperature: 2575
partition number:
1 (1), 7 (7)
2 (2), 8 (8)
3 (3), 9 (9)
0 (0), A (10)
4 (4), B (11)
5 (5), C (12)
6 (6), D (13)
temperature readings:
6F75F8 (7304696), 72334B (7484235)
6C728E (7107214), 6DED21 (7204129)
6E1CF2 (7216370), 6D10C1 (7147713)
774CCE (7818446), 74914A (7639370)
797EFE (7962366), 7249A5 (7489957)
794A40 (7948864), 742B65 (7613285)
79C056 (7979094), 7D2FB7 (8204215)
placement results:
0 (0), 1 (1)
0 (0), 0 (0)
0 (0), 0 (0)
0 (0), 0 (0)
0 (0), 0 (0)
0 (0), 0 (0)
0 (0), 1 (1)
usage results:
0 (0), 0 (0)
0 (0), 0 (0)
0 (0), 0 (0)
0 (0), 0 (0)
0 (0), 0 (0)
0 (0), 0 (0)
0 (0), 0 (0)
core temperature: 2583
partition number:
1 (1), 7 (7)
2 (2), 8 (8)
3 (3), 9 (9)
0 (0), A (10)
4 (4), B (11)
5 (5), C (12)
6 (6), D (13)
temperature readings:
6F726A (7303786), 722F55 (7483221)
6C6EE5 (7106277), 6DE9D1 (7203281)
6E19C4 (7215556), 6D0D71 (7146865)
7749E1 (7817697), 748E65 (7638629)
797C66 (7961702), 724653 (7489107)
7945F4 (7947764), 7426DC (7612124)
79BCC3 (7978179), 7D2BFC (8203260)
placement results:
0 (0), 1 (1)
0 (0), 0 (0)
0 (0), 0 (0)
0 (0), 0 (0)
0 (0), 0 (0)
0 (0), 0 (0)
0 (0), 1 (1)
usage results:
0 (0), 0 (0)
0 (0), 0 (0)
0 (0), 0 (0)
0 (0), 0 (0)
0 (0), 0 (0)
0 (0), 0 (0)
0 (0), 0 (0)
core temperature: 2591
partition number:
1 (1), 7 (7)
2 (2), 8 (8)
3 (3), 9 (9)
0 (0), A (10)
4 (4), B (11)
5 (5), C (12)
6 (6), D (13)
temperature readings:
6F6942 (7301442), 7226E6 (7481062)
6C6656 (7104086), 6DE173 (7201139)
6E1156 (7213398), 6D0510 (7144720)
774178 (7815544), 7485BB (7636411)
79726D (7959149), 723C91 (7486609)
793C60 (7945312), 741DA9 (7609769)
79B260 (7975520), 7D21A6 (8200614)
placement results:
0 (0), 1 (1)
0 (0), 0 (0)
0 (0), 0 (0)
0 (0), 0 (0)
0 (0), 0 (0)
0 (0), 0 (0)
0 (0), 1 (1)
usage results:
0 (0), 0 (0)
0 (0), 0 (0)
0 (0), 0 (0)
0 (0), 0 (0)
0 (0), 0 (0)
0 (0), 0 (0)
0 (0), 0 (0)
core temperature: 2599
partition number:
1 (1), 7 (7)
2 (2), 8 (8)
3 (3), 9 (9)
0 (0), A (10)
4 (4), B (11)
5 (5), C (12)
6 (6), D (13)
temperature readings:
6F5D0A (7298314), 721BA7 (7478183)
6C5B8D (7101325), 6DD704 (7198468)
6E061D (7210525), 6CFAAB (7142059)
7736A1 (7812769), 747A38 (7633464)
796593 (7955859), 72300C (7483404)
79305B (7942235), 74117C (7606652)
79A7BB (7972795), 7D170E (8197902)
placement results:
0 (0), 1 (1)
0 (0), 0 (0)
0 (0), 0 (0)
0 (0), 0 (0)
0 (0), 0 (0)
0 (0), 0 (0)
0 (0), 1 (1)
usage results:
0 (0), 0 (0)
0 (0), 0 (0)
0 (0), 0 (0)
0 (0), 0 (0)
0 (0), 0 (0)
0 (0), 0 (0)
0 (0), 0 (0)
core temperature: 2607
partition number:
1 (1), 7 (7)
2 (2), 8 (8)
3 (3), 9 (9)
0 (0), A (10)
4 (4), B (11)
5 (5), C (12)
6 (6), D (13)
temperature readings:
6F5372 (7295858), 7211DB (7475675)
6C516D (7098733), 6DCD40 (7195968)
6DFC94 (7208084), 6CF14D (7139661)
772D21 (7810337), 747071 (7630961)
795C17 (7953431), 72268F (7480975)
7925EA (7939562), 740742 (7604034)
799DB5 (7970229), 7D0C1C (8195100)
placement results:
0 (0), 1 (1)
0 (0), 0 (0)
0 (0), 0 (0)
0 (0), 0 (0)
0 (0), 0 (0)
0 (0), 0 (0)
0 (0), 1 (1)
usage results:
0 (0), 0 (0)
0 (0), 0 (0)
0 (0), 0 (0)
0 (0), 0 (0)
0 (0), 0 (0)
0 (0), 0 (0)
0 (0), 0 (0)